

 Program UNIPLOT                         version 05.29.00
 _______________
 (c) Fugro Engineers B.V., Nootdorp, The Netherlands


 ASCII representation of data plotted on a graph.

 This ASCII file presents data interpolated to values per fixed depth interval.
 The data are corrected for the depth-offset differences between the various 
 transducers in the penetrometer.

 The records at the start of penetration may include no values or anomalous
 values where a depth offset implies incomplete penetration of a particular
 sensor into the ground.

 The records at the end of penetration may include no values for data channels
 where the transducer did not reach this depth.

 UNICAS data file          : CPT_WFS1_01.000                         
 Output using command file : Qc+Qt+Qn+Fs+U2+Rf+Bq_Seafloor.ucf

 ASCII file created at : date          :03-Jul-2015
                         time          :13:19:13
 Project number                        :N6016/02 (2)                                                                                        
 Date of testing                       :10-May-2015                                                                                         
 Location                              :CPT_WFS1_1                                                                                          
 Test name                             :CPT_WFS1_1
 Penetrometer                          :CP15-CF75PB20SN2
 Serial no                             :1701-2483

 Table description:
 Column id                             :Parameter name
 ___________________________________________________________________________________
 Rec                                   :Record ID, Record ID [-]
 Depth                                 :Depth, Depth [m]
 Time                                  :Time, Time [s]
 Cone                                  :Cone Resistance, Cone Resistance [MPa]
 Qnet-                                 :Net Cone Resistance, Net Cone Resistance [MPa], unit weight as specified in ground model
 qt                                    :Total Cone Resistance, Total Cone Resistance [MPa]
 Friction                              :Sleeve Friction, Sleeve Friction [MPa]
 Pore 2                                :Porewater Pressure, Porewater Pressure at Shoulder [MPa]
 Bq                                    :Porewater Pressure Ratio, Porewater Pressure Ratio [-], unit weight as specified in ground model
 Fric_ratio                            :Friction Ratio, Friction Ratio [%]


 Data table:
  Rec    Depth      Time       Cone      Qnet-         qt   Friction     Pore 2         Bq Fric_ratio           
   No        m         s        MPa        MPa        MPa        MPa        MPa          -          %           
    1    0.000   1462.00     0.0013     0.0016     0.0016                           0.5650                      
    2    0.020   1463.06     0.0222     0.0223     0.0227                0.0014     0.0421                      
    3    0.040   1464.17     0.0767     0.0765     0.0773                0.0017     0.0157                      
    4    0.060   1465.13     0.1536     0.1533     0.1545     0.0010     0.0019     0.0092     0.9465           
    5    0.080   1466.09     0.2276     0.2269     0.2285     0.0014     0.0023     0.0059     0.7035           
    6    0.100   1467.15     0.3002     0.2992     0.3012     0.0021     0.0025     0.0047     0.7987           
    7    0.120   1468.11     0.4285     0.4270     0.4294     0.0028     0.0021     0.0024     0.7938           
    8    0.140   1469.17     0.5790     0.5770     0.5798     0.0036     0.0020     0.0011     0.7120           
    9    0.160   1470.25     0.7744     0.7719     0.7751     0.0049     0.0018     0.0003     0.7177           
   10    0.180   1471.30     1.0040     1.0011     1.0047     0.0059     0.0015    -0.0003     0.6602           
   11    0.200   1472.22     1.1855     1.1822     1.1862     0.0067     0.0019    -0.0002     0.5989           
   12    0.220   1473.27     1.3361     1.3326     1.3370     0.0074     0.0025     0.0000     0.5683           
   13    0.240   1474.30     1.4550     1.4515     1.4563     0.0075     0.0033     0.0005     0.5310           
   14    0.260   1475.35     1.5698     1.5662     1.5714     0.0077     0.0039     0.0007     0.5033           
   15    0.280   1476.33     1.6893     1.6854     1.6910     0.0081     0.0043     0.0008     0.4946           
   16    0.300   1477.45     1.8209     1.8166     1.8226     0.0087     0.0041     0.0006     0.4893           
   17    0.320   1478.56     1.9891     1.9845     1.9909     0.0095     0.0042     0.0005     0.4930           
   18    0.340   1479.64     2.1898     2.1848     2.1916     0.0102     0.0044     0.0004     0.4802           
   19    0.360   1480.65     2.3526     2.3473     2.3545     0.0106     0.0045     0.0004     0.4611           
   20    0.380   1481.58     2.4889     2.4833     2.4909     0.0113     0.0047     0.0004     0.4594           
   21    0.400   1482.73     2.6160     2.6100     2.6180     0.0119     0.0048     0.0003     0.4579           
   22    0.420   1483.72     2.7144     2.7081     2.7165     0.0127     0.0049     0.0003     0.4733           
   23    0.440   1484.75     2.7705     2.7638     2.7726     0.0138     0.0050     0.0002     0.5007           
   24    0.460   1485.79     2.8716     2.8645     2.8737     0.0149     0.0052     0.0001     0.5269           
   25    0.480   1487.00     3.0551     3.0478     3.0574     0.0161     0.0057     0.0002     0.5418           
   26    0.500   1488.00     3.2143     3.2068     3.2168     0.0175     0.0063     0.0003     0.5549           
   27    0.520   1489.09     3.3579     3.3503     3.3607     0.0193     0.0067     0.0004     0.5820           
   28    0.540   1490.09     3.4560     3.4481     3.4589     0.0214     0.0068     0.0004     0.6254           
   29    0.560   1491.11     3.5268     3.5184     3.5296     0.0234     0.0067     0.0003     0.6685           
   30    0.580   1492.08     3.5715     3.5626     3.5742     0.0254     0.0066     0.0002     0.7118           
   31    0.600   1493.15     3.6066     3.5973     3.6093     0.0268     0.0065     0.0001     0.7452           
   32    0.620   1494.21     3.6251     3.6157     3.6281     0.0274     0.0072     0.0002     0.7550           
   33    0.640   1495.35     3.6508     3.6413     3.6541     0.0277     0.0080     0.0004     0.7602           
   34    0.660   1544.86     3.7736     3.7639     3.7771     0.0282     0.0085     0.0005     0.7641           
   35    0.680   1667.01     3.9888     3.9789     3.9925     0.0278     0.0090     0.0005     0.7551           
   36    0.700   1716.58     4.2686     4.2583     4.2723     0.0277     0.0089     0.0005     0.6613           
   37    0.720   1717.56     4.6033     4.5926     4.6070     0.0289     0.0089     0.0004     0.6364           
   38    0.740   1718.69     4.9608     4.9496     4.9644     0.0304     0.0087     0.0002     0.6240           
   39    0.760   1719.71     5.3154     5.3039     5.3191     0.0328     0.0088     0.0002     0.6311           
   40    0.780   1720.79     5.7133     5.7014     5.7170     0.0363     0.0091     0.0002     0.6480           
   41    0.800   1721.84     6.0224     6.0102     6.0262     0.0392     0.0095     0.0002     0.6612           
   42    0.820   1723.00     6.1847     6.1722     6.1886     0.0412     0.0097     0.0002     0.6724           
   43    0.840   1724.00     6.2049     6.1922     6.2090     0.0432     0.0099     0.0002     0.6964           
   44    0.860   1725.07     6.1893     6.1763     6.1935     0.0451     0.0100     0.0002     0.7279           
   45    0.880   1726.11     6.1753     6.1619     6.1795     0.0460     0.0103     0.0002     0.7454           
   46    0.900   1727.08     6.1558     6.1422     6.1602     0.0460     0.0106     0.0002     0.7476           
   47    0.920   1728.08     6.1145     6.1008     6.1192     0.0459     0.0112     0.0003     0.7498           
   48    0.940   1729.19     6.0641     6.0502     6.0690     0.0448     0.0118     0.0004     0.7364           
   49    0.960   1730.22     5.9821     5.9679     5.9871     0.0427     0.0121     0.0004     0.7117           
   50    0.980   1731.42     5.9118     5.8974     5.9170     0.0410     0.0122     0.0004     0.6916           
   51    1.000   1737.31     5.9753     5.9604     5.9804     0.0401     0.0122     0.0004     0.6782           
   52    1.020   1743.43     6.0458     6.0305     6.0509     0.0401     0.0122     0.0003     0.6785           
   53    1.040   1746.59     6.2094     6.1939     6.2147     0.0413     0.0127     0.0004     0.6734           
   54    1.060   1747.44     6.4960     6.4803     6.5015     0.0427     0.0131     0.0004     0.6653           
   55    1.080   1748.49     6.8143     6.7983     6.8199     0.0444     0.0130     0.0004     0.6589           
   56    1.100   1749.65     7.0835     7.0669     7.0889     0.0462     0.0129     0.0003     0.6602           
   57    1.120   1750.63     7.2726     7.2556     7.2780     0.0476     0.0127     0.0002     0.6598           
   58    1.140   1751.75     7.4389     7.4213     7.4441     0.0482     0.0125     0.0002     0.6531           
   59    1.160   1752.90     7.6398     7.6220     7.6452     0.0491     0.0132     0.0002     0.6488           
   60    1.180   1753.93     7.9081     7.8900     7.9136     0.0504     0.0133     0.0002     0.6463           
   61    1.200   1754.84     8.2280     8.2097     8.2337     0.0521     0.0137     0.0002     0.6404           
   62    1.220   1755.84     8.5973     8.5786     8.6030     0.0548     0.0138     0.0002     0.6438           
   63    1.240   1756.94     9.0125     8.9936     9.0184     0.0581     0.0140     0.0002     0.6536           
   64    1.260   1757.95     9.3285     9.3092     9.3344     0.0606     0.0140     0.0002     0.6600           
   65    1.280   1759.08     9.5970     9.5774     9.6030     0.0631     0.0142     0.0002     0.6664           
   66    1.300   1760.22     9.8049     9.7848     9.8108     0.0655     0.0141     0.0001     0.6729           
   67    1.320   1761.29     9.9424     9.9220     9.9484     0.0706     0.0144     0.0001     0.7133           
   68    1.340   1762.36    10.0098     9.9892    10.0160     0.0741     0.0150     0.0001     0.7426           
   69    1.360   1811.04     9.8698     9.8491     9.8763     0.0757     0.0157     0.0002     0.7557           
   70    1.380   1864.97     9.7072     9.6864     9.7140     0.0758     0.0164     0.0002     0.7571           
   71    1.400   1918.91     9.5446     9.5237     9.5517     0.0751     0.0171     0.0003     0.7498           
   72    1.420   1946.38     9.4319     9.4108     9.4392     0.0740     0.0174     0.0003     0.7829           
   73    1.440   1947.44     9.3904     9.3690     9.3978     0.0721     0.0174     0.0003     0.7666           
   74    1.460   1948.43     9.3831     9.3612     9.3904     0.0699     0.0176     0.0003     0.7450           
   75    1.480   1949.72     9.3742     9.3519     9.3815     0.0677     0.0176     0.0003     0.7217           
   76    1.500   1950.72     9.3581     9.3355     9.3655     0.0655     0.0179     0.0003     0.7001           
   77    1.520   1951.68     9.3901     9.3672     9.3976     0.0637     0.0181     0.0003     0.6802           
   78    1.540   1952.72     9.5201     9.4970     9.5278     0.0634     0.0182     0.0003     0.6701           
   79    1.560   1953.71     9.7380     9.7145     9.7457     0.0642     0.0181     0.0003     0.6647           
   80    1.580   1954.80    10.1127    10.0888    10.1204     0.0666     0.0185     0.0003     0.6667           
   81    1.600   1955.95    10.5363    10.5120    10.5440     0.0690     0.0184     0.0002     0.6618           
   82    1.620   1956.88    10.8348    10.8102    10.8426     0.0716     0.0187     0.0002     0.6653           
   83    1.640   1958.04    11.0108    10.9860    11.0188     0.0739     0.0192     0.0002     0.6741           
   84    1.660   1959.14    11.1399    11.1148    11.1480     0.0764     0.0192     0.0002     0.6885           
   85    1.680   1960.07    11.2291    11.2036    11.2372     0.0787     0.0193     0.0002     0.7026           
   86    1.700   1961.15    11.3418    11.3160    11.3500     0.0797     0.0195     0.0002     0.7047           
   87    1.720   1962.25    11.4376    11.4115    11.4459     0.0806     0.0198     0.0002     0.7058           
   88    1.740   1963.29    11.5395    11.5130    11.5478     0.0813     0.0199     0.0002     0.7057           
   89    1.760   1964.26    11.6410    11.6141    11.6493     0.0835     0.0199     0.0002     0.7190           
   90    1.780   1965.34    11.7266    11.6995    11.7351     0.0852     0.0202     0.0002     0.7279           
   91    1.800   1966.43    11.8080    11.7805    11.8165     0.0867     0.0204     0.0002     0.7352           
   92    1.820   1967.54    11.8360    11.8081    11.8445     0.0892     0.0206     0.0002     0.7539           
   93    1.840   1968.65    11.8077    11.7797    11.8165     0.0905     0.0210     0.0002     0.7647           
   94    1.860   1969.73    11.7024    11.6741    11.7113     0.0910     0.0213     0.0002     0.7749           
   95    1.880   1970.65    11.5338    11.5052    11.5428     0.0898     0.0217     0.0002     0.7758           
   96    1.900   1971.78    11.2935    11.2647    11.3027     0.0868     0.0222     0.0003     0.7658           
   97    1.920   1972.79    11.0344    11.0054    11.0438     0.0840     0.0225     0.0003     0.7575           
   98    1.940   1973.76    10.8605    10.8312    10.8700     0.0816     0.0223     0.0003     0.7484           
   99    1.960   1974.83    10.7835    10.7537    10.7929     0.0806     0.0224     0.0003     0.7466           
  100    1.980   1976.00    10.8119    10.7817    10.8213     0.0792     0.0227     0.0002     0.7349           
  101    2.000   1977.08    10.8878    10.8574    10.8974     0.0796     0.0232     0.0003     0.7331           
  102    2.020   1978.15    10.9531    10.9226    10.9630     0.0794     0.0237     0.0003     0.7259           
  103    2.040   1979.15    10.9658    10.9350    10.9758     0.0807     0.0239     0.0003     0.7363           
  104    2.060   1980.07    10.9105    10.8794    10.9206     0.0808     0.0239     0.0003     0.7393           
  105    2.080   1981.10    10.8196    10.7881    10.8297     0.0805     0.0242     0.0003     0.7426           
  106    2.100   1982.22    10.7261    10.6943    10.7363     0.0789     0.0241     0.0003     0.7336           
  107    2.120   1983.36    10.6378    10.6055    10.6479     0.0796     0.0241     0.0003     0.7462           
  108    2.140   1984.33    10.6169    10.5844    10.6272     0.0792     0.0248     0.0003     0.7454           
  109    2.160   1985.38    10.6776    10.6449    10.6881     0.0783     0.0250     0.0003     0.7354           
  110    2.180   1986.47    10.7599    10.7270    10.7706     0.0777     0.0255     0.0003     0.7242           
  111    2.200   1987.43    10.8644    10.8311    10.8751     0.0781     0.0256     0.0003     0.7209           
  112    2.220   1988.43    10.9975    10.9638    11.0082     0.0788     0.0256     0.0003     0.7178           
  113    2.240   1989.49    11.1758    11.1418    11.1866     0.0791     0.0258     0.0003     0.7087           
  114    2.260   1990.63    11.4014    11.3672    11.4124     0.0792     0.0264     0.0003     0.6974           
  115    2.280   1991.79    11.6404    11.6059    11.6515     0.0789     0.0263     0.0003     0.6805           
  116    2.300   1992.76    11.8886    11.8536    11.8996     0.0792     0.0263     0.0003     0.6703           
  117    2.320   1993.88    12.1399    12.1045    12.1509     0.0795     0.0263     0.0002     0.6592           
  118    2.340   1995.03    12.3392    12.3036    12.3504     0.0803     0.0267     0.0003     0.6521           
  119    2.360   1996.03    12.4989    12.4630    12.5102     0.0809     0.0270     0.0003     0.6506           
  120    2.380   1997.06    12.6747    12.6384    12.6860     0.0830     0.0273     0.0003     0.6578           
  121    2.400   1998.10    12.8085    12.7721    12.8201     0.0845     0.0277     0.0003     0.6607           
  122    2.420   1999.13    12.8600    12.8233    12.8717     0.0862     0.0278     0.0003     0.6712           
  123    2.440   2000.17    12.9040    12.8668    12.9156     0.0888     0.0279     0.0003     0.6887           
  124    2.460   2001.30    12.9023    12.8650    12.9142     0.0905     0.0282     0.0003     0.7014           
  125    2.480   2002.42    12.9118    12.8743    12.9239     0.0916     0.0287     0.0003     0.7102           
  126    2.500   2003.43    12.9657    12.9279    12.9779     0.0922     0.0287     0.0003     0.7126           
  127    2.520   2004.51    13.0126    12.9745    13.0249     0.0919     0.0291     0.0003     0.7081           
  128    2.540   2005.56    13.0611    13.0224    13.0732     0.0917     0.0291     0.0003     0.7037           
  129    2.560   2006.49    13.0816    13.0427    13.0939     0.0917     0.0293     0.0003     0.7021           
  130    2.580   2007.60    13.1472    13.1080    13.1596     0.0947     0.0295     0.0003     0.7204           
  131    2.600   2008.63    13.2239    13.1844    13.2364     0.0960     0.0300     0.0003     0.7262           
  132    2.620   2037.44    13.1737    13.1340    13.1864     0.0976     0.0303     0.0003     0.7373           
  133    2.640   2078.06    13.0729    13.0329    13.0857     0.0993     0.0306     0.0003     0.7495           
  134    2.660   2118.69    12.9721    12.9319    12.9851     0.1004     0.0309     0.0003     0.7580           
  135    2.680   2131.69    12.8874    12.8469    12.9005     0.1010     0.0313     0.0003     0.7817           
  136    2.700   2132.67    12.7994    12.7586    12.8126     0.1005     0.0313     0.0003     0.7831           
  137    2.720   2133.69    12.6459    12.6049    12.6593     0.0991     0.0320     0.0004     0.7810           
  138    2.740   2134.71    12.4220    12.3808    12.4356     0.0974     0.0325     0.0004     0.7809           
  139    2.760   2135.77    12.2041    12.1627    12.2179     0.0958     0.0327     0.0004     0.7814           
  140    2.780   2137.00    12.0590    12.0170    12.0726     0.0947     0.0328     0.0004     0.7816           
  141    2.800   2137.94    12.0079    11.9657    12.0217     0.0939     0.0329     0.0004     0.7806           
  142    2.820   2139.01    11.9735    11.9311    11.9875     0.0934     0.0332     0.0004     0.7794           
  143    2.840   2140.04    11.9793    11.9364    11.9932     0.0931     0.0331     0.0004     0.7773           
  144    2.860   2141.14    11.9222    11.8789    11.9361     0.0934     0.0332     0.0004     0.7814           
  145    2.880   2142.15    11.8282    11.7844    11.8420     0.0941     0.0331     0.0004     0.7939           
  146    2.900   2143.19    11.7244    11.6805    11.7385     0.0940     0.0336     0.0004     0.8005           
  147    2.920   2144.15    11.6073    11.5632    11.6216     0.0925     0.0340     0.0004     0.7948           
  148    2.940   2145.23    11.4464    11.4020    11.4608     0.0902     0.0344     0.0004     0.7837           
  149    2.960   2146.26    11.2123    11.1677    11.2269     0.0881     0.0349     0.0005     0.7801           
  150    2.980   2147.43    10.9686    10.9236    10.9832     0.0861     0.0349     0.0005     0.7790           
